BEGIN IONS
TITLE=test_spectrum
PEPMASS=899.5588
100.771224976	820317.75
121.79940033	774536.75
128.127700806	1372631.375
129.131561279	199778240.0
130.13482666	6835209.5
140.535247803	906608.125
144.940917969	777941.0625
155.08190918	1265031.5
158.129180908	840092.75
167.476394653	848501.8125
171.461959839	865693.125
173.128707886	804427.625
175.156036377	5320883.5
188.159683228	1708549.125
201.12272644	1958216.625
229.167434692	1272970.625
230.170043945	40139072.0
231.173828125	1315771.5
240.171218872	1235030.625
268.166687012	905184.75
274.778747559	822048.8125
284.15914917	7067162.5
302.170288086	918418.0625
315.259460449	10379002.0
316.206085205	4661403.5
316.265441895	958139.9375
337.186248779	4004829.25
343.25390625	19776234.0
344.25604248	1153387.5
355.197723389	3570145.75
376.274291992	11880128.0
383.229125977	3148025.75
401.237945557	1063669.75
402.293395996	1380426.0
406.740447998	1321996.125
430.286590576	10805580.0
440.284545898	895250.3125
441.250823975	3742387.75
447.31539917	1475850.0
448.300689697	1064258.875
450.263214111	5115835.0
468.281738281	1110924.875
472.326690674	5595636.0
473.328125	149678160.0
474.330352783	16196144.0
497.794219971	1428664.5
514.32824707	1084012.125
527.304138184	5089654.0
544.313537598	6389138.5
545.312988281	150383184.0
546.31628418	20654014.0
548.316711426	3314801.75
548.805114746	1010723.25
551.315002441	3088987.75
557.319763184	1754929.75
568.401367188	1682102.5
569.328369141	2964391.75
586.41217041	31536172.0
587.414428711	4686065.0
642.358520508	1063470.625
650.385314941	3741390.5
668.395629883	3922292.5
685.486633301	9844592.0
699.38861084	11037658.0
736.601989746	1083049.375
781.488037109	5769848.5
784.474365234	9984831.0
785.47857666	1180149.625
786.528991699	17032628.0
787.531555176	3390448.0
811.46270752	916109.875
812.471862793	22422530.0
813.482727051	5786563.0
852.449707031	900749.1875
877.543762207	1612369.125
881.494689941	5654423.0
882.491821289	1222246.625
890.549255371	6326107.0
891.055358887	3940128.5
899.05847168	8213391.5
899.557067871	150627728.0
900.059020996	122202528.0
900.472351074	2453317.75
984.582092285	1980852.0
986.644836426	15437189.0
987.65057373	4773346.5
994.567138672	2916180.25
1012.58111572	9030982.0
1013.59136963	1561083.75
1069.61120605	3271320.75
1095.64233398	6689953.0
1096.67712402	5936236.5
1097.69042969	1762650.5
1113.6340332	15355980.0
1114.63574219	6422648.5
1156.7421875	1653616.625
1168.69580078	2366076.25
1184.71435547	1826620.125
1194.69213867	10661970.0
1195.69543457	3923388.75
1212.70031738	19309884.0
1213.70825195	8747964.0
1235.78759766	1070636.375
1252.80834961	1404747.0
1253.8026123	40366404.0
1254.80273438	19764868.0
1281.78527832	1104420.625
1298.80529785	1139575.0
1325.78613281	29451894.0
1326.7857666	14679497.0
1368.81604004	1626870.875
1455.84606934	4796575.0
1456.87402344	1967581.875
1568.9362793	1324681.375
1640.98486328	14496202.0
1641.99707031	10108404.0
END IONS
